#lambda/T	 mass/T		 s/T^3 		 eta/s(R2)	 eta/s (full)
0.015625	0.139855	0.568543	1445.987746	2137.605252	
0.016746	0.143766	0.568282	1303.460957	1933.176024	
0.017948	0.147775	0.568010	1174.486948	1746.319039	
0.019237	0.151883	0.567726	1058.121782	1574.624394	
0.020617	0.156092	0.567430	954.753531	1423.069817	
0.022097	0.160403	0.567121	860.089897	1283.000621	
0.023683	0.164820	0.566799	775.480388	1158.019558	
0.025383	0.169342	0.566463	698.276097	1042.966230	
0.027205	0.173973	0.566113	629.603820	941.505830	
0.029157	0.178714	0.565749	567.956913	850.440037	
0.031250	0.183566	0.565370	512.713454	768.986050	
0.033493	0.188532	0.564976	462.201997	693.613954	
0.035897	0.193613	0.564565	416.681086	625.703766	
0.038473	0.198810	0.564138	376.053133	565.340637	
0.041235	0.204126	0.563694	339.157405	509.299041	
0.044194	0.209561	0.563233	306.255720	459.186915	
0.047366	0.215118	0.562754	276.355506	413.895281	
0.050766	0.220798	0.562257	249.517059	373.398092	
0.054409	0.226602	0.561740	225.500946	337.602576	
0.058315	0.232531	0.561204	203.472090	304.365645	
0.062500	0.238587	0.560648	183.902823	275.303485	
0.066986	0.244771	0.560072	166.080155	248.597874	
0.071794	0.251084	0.559475	150.017114	224.353492	
0.076947	0.257527	0.558856	135.605588	202.769354	
0.082469	0.264101	0.558216	122.557387	183.181759	
0.088388	0.270807	0.557553	110.774846	165.500456	
0.094732	0.277645	0.556868	100.231159	149.813513	
0.101532	0.284615	0.556159	90.605121	135.392044	
0.108819	0.291719	0.555427	81.935014	122.406456	
0.116629	0.298957	0.554671	74.102370	110.707405	
0.125000	0.306328	0.553890	67.072005	100.231131	
0.133972	0.313833	0.553084	60.692140	90.592666	
0.143587	0.321471	0.552254	54.942173	81.994822	
0.153893	0.329242	0.551398	49.740080	74.223203	
0.164938	0.337145	0.550516	45.031301	67.243581	
0.176777	0.345180	0.549609	40.796518	60.907400	
0.189465	0.353345	0.548675	36.957208	55.156393	
0.203063	0.361638	0.547715	33.492543	49.912412	
0.217638	0.370060	0.546729	30.367570	45.202851	
0.233258	0.378606	0.545717	27.523315	40.898228	
0.250000	0.387277	0.544678	24.971645	37.079215	
0.267943	0.396069	0.543613	22.639126	33.553180	
0.287175	0.404979	0.542521	20.554130	30.397578	
0.307786	0.414005	0.541404	18.652803	27.512857	
0.329877	0.423143	0.540260	16.931773	24.912017	
0.353553	0.432390	0.539091	15.385008	22.569637	
0.378929	0.441743	0.537897	13.974426	20.449925	
0.406126	0.451195	0.536678	12.701316	18.549776	
0.435275	0.460744	0.535435	11.542366	16.827861	
0.466516	0.470384	0.534168	10.495433	15.282767	
0.500000	0.480110	0.532879	9.544780	13.887940	
0.535887	0.489916	0.531567	8.685727	12.613621	
0.574349	0.499796	0.530233	7.905374	11.459801	
0.615572	0.509743	0.528879	7.198564	10.416429	
0.659754	0.519751	0.527506	6.557876	9.477244	
0.707107	0.529813	0.526114	5.975937	8.625319	
0.757858	0.539921	0.524705	5.447726	7.854734	
0.812252	0.550067	0.523280	4.969270	7.160494	
0.870551	0.560243	0.521840	4.536237	6.517070	
0.933033	0.570440	0.520387	4.142164	5.936548	
1.000000	0.580649	0.518923	3.785107	5.412738	
1.071773	0.590862	0.517448	3.460346	4.938484	
1.148698	0.601068	0.515965	3.165758	4.509311	
1.231144	0.611258	0.514475	2.897763	4.121540	
1.319508	0.621422	0.512980	2.654770	3.764428	
1.414214	0.631549	0.511481	2.434146	3.441144	
1.515717	0.641630	0.509982	2.233268	3.148371	
1.624505	0.651653	0.508483	2.050670	2.882961	
1.741101	0.661608	0.506986	1.884902	2.643836	
1.866066	0.671485	0.505494	1.733874	2.426524	
2.000000	0.681272	0.504009	1.597029	2.231018	
2.143547	0.690960	0.502532	1.472221	2.051712	
2.297397	0.700538	0.501065	1.359299	1.888187	
2.462289	0.709995	0.499611	1.255980	1.740149	
2.639016	0.719321	0.498172	1.162033	1.605960	
2.828427	0.728507	0.496749	1.076416	1.484543	
3.031433	0.737542	0.495344	0.998496	1.374135	
3.249010	0.746419	0.493959	0.927309	1.274210	
3.482202	0.755128	0.492596	0.862597	1.183347	
3.732132	0.763660	0.491257	0.803528	1.101130	
4.000000	0.772009	0.489942	0.749980	1.026268	
4.287094	0.780167	0.488654	0.700954	0.957473	
4.594793	0.788127	0.487394	0.656288	0.894706	
4.924578	0.795884	0.486163	0.615515	0.837324	
5.278032	0.803433	0.484963	0.578433	0.785105	
5.656854	0.810768	0.483793	0.544638	0.737371	
6.062866	0.817887	0.482656	0.513813	0.694089	
6.498019	0.824786	0.481552	0.485614	0.654480	
6.964405	0.831463	0.480481	0.459802	0.618290	
7.464264	0.837916	0.479444	0.436286	0.585442	
8.000000	0.844145	0.478442	0.414801	0.555448	
8.574188	0.850149	0.477475	0.395234	0.527686	
9.189587	0.855928	0.476542	0.377353	0.502440	
9.849155	0.861485	0.475644	0.360889	0.479324	
10.556063	0.866821	0.474780	0.345851	0.458361	
11.313708	0.871938	0.473951	0.332164	0.439237	
12.125733	0.876840	0.473156	0.319612	0.421680	
12.996038	0.881529	0.472395	0.308103	0.405751	
13.928809	0.886011	0.471667	0.297571	0.391302	
14.928528	0.890288	0.470971	0.287819	0.377894	
16.000000	0.894367	0.470307	0.278971	0.365750	
17.148375	0.898252	0.469674	0.270844	0.354619	
18.379174	0.901949	0.469071	0.263373	0.344442	
19.698311	0.905463	0.468497	0.256500	0.335078	
21.112127	0.908800	0.467952	0.250190	0.326546	
22.627417	0.911967	0.467435	0.244398	0.318708	
24.251465	0.914968	0.466944	0.239081	0.311534	
25.992077	0.917811	0.466479	0.234176	0.304947	
27.857618	0.920501	0.466039	0.229650	0.298907	
29.857056	0.923046	0.465622	0.225469	0.293339	
32.000000	0.925450	0.465229	0.221604	0.288220	
34.296751	0.927720	0.464857	0.217990	0.283460	
36.758347	0.929862	0.464505	0.214677	0.279082	
39.396621	0.931882	0.464174	0.211618	0.275046	
42.224253	0.933785	0.463862	0.208825	0.271329	
45.254834	0.935578	0.463568	0.206249	0.267860	
48.502930	0.937266	0.463290	0.203856	0.264634	
51.984153	0.938854	0.463030	0.201640	0.261654	
55.715236	0.940347	0.462784	0.199566	0.258873	
59.714111	0.941751	0.462554	0.197638	0.256294	
64.000000	0.943069	0.462337	0.195852	0.253926	
68.593502	0.944308	0.462134	0.194176	0.251689	
73.516695	0.945470	0.461943	0.192620	0.249617	
78.793242	0.946561	0.461763	0.191176	0.247708	
84.448506	0.947585	0.461595	0.189828	0.245920	
90.509668	0.948544	0.461437	0.188574	0.244254	
97.005860	0.949444	0.461289	0.187406	0.242701	
103.968307	0.950287	0.461150	0.186320	0.241261	
111.430472	0.951077	0.461021	0.185307	0.239923	
119.428223	0.951817	0.460899	0.184362	0.238675	
128.000000	0.952509	0.460785	0.183479	0.237501	
137.187003	0.953158	0.460678	0.182658	0.236426	
147.033389	0.953765	0.460578	0.181891	0.235410	
157.586485	0.954333	0.460485	0.181179	0.234462	
168.897013	0.954865	0.460397	0.180514	0.233585	
181.019336	0.955362	0.460315	0.179892	0.232762	
194.011721	0.955827	0.460239	0.179312	0.231998	
207.936613	0.956262	0.460167	0.178772	0.231288	
222.860944	0.956669	0.460100	0.178267	0.230623	
238.856446	0.957049	0.460037	0.177797	0.230009	
256.000000	0.957404	0.459979	0.177357	0.229424	
274.374006	0.957737	0.459924	0.176946	0.228876	
294.066779	0.958047	0.459873	0.176565	0.228378	
315.172970	0.958337	0.459825	0.176208	0.227908	
337.794025	0.958608	0.459781	0.175875	0.227469	
362.038672	0.958861	0.459739	0.175563	0.227059	
388.023441	0.959098	0.459700	0.175273	0.226678	
415.873227	0.959319	0.459664	0.175001	0.226317	
445.721888	0.959525	0.459630	0.174748	0.225986	
477.712892	0.959718	0.459598	0.174513	0.225682	
512.000000	0.959898	0.459568	0.174292	0.225390	
548.748013	0.960066	0.459540	0.174086	0.225118	
588.133558	0.960223	0.459515	0.173896	0.224871	
630.345940	0.960370	0.459490	0.173718	0.224639	
675.588050	0.960507	0.459468	0.173549	0.224410	
724.077344	0.960634	0.459447	0.173394	0.224207	
776.046882	0.960754	0.459427	0.173248	0.224009	
831.746454	0.960865	0.459409	0.173114	0.223835	
891.443777	0.960969	0.459392	0.172989	0.223674	
955.425783	0.961066	0.459376	0.172871	0.223516	
1024.000000	0.961157	0.459361	0.172761	0.223369	
1097.496026	0.961241	0.459347	0.172659	0.223239	
1176.267116	0.961320	0.459334	0.172561	0.223105	
1260.691879	0.961394	0.459322	0.172473	0.222991	
1351.176101	0.961463	0.459310	0.172390	0.222882	
1448.154688	0.961527	0.459300	0.172313	0.222781	
1552.093764	0.961587	0.459290	0.172240	0.222683	
1663.492908	0.961643	0.459281	0.172173	0.222598	
1782.887554	0.961695	0.459272	0.172109	0.222514	
1910.851567	0.961744	0.459264	0.172049	0.222432	
2048.000000	0.961789	0.459256	0.171995	0.222360	
2194.992051	0.961832	0.459249	0.171942	0.222289	
2352.534231	0.961871	0.459243	0.171895	0.222228	
2521.383759	0.961908	0.459237	0.171851	0.222173	
2702.352201	0.961943	0.459231	0.171810	0.222121	
2896.309376	0.961975	0.459226	0.171771	0.222069	
3104.187528	0.962005	0.459221	0.171733	0.222015	
3326.985815	0.962033	0.459216	0.171701	0.221974	
3565.775107	0.962059	0.459212	0.171670	0.221936	
3821.703133	0.962083	0.459208	0.171638	0.221887	
4096.000000	0.962106	0.459204	0.171612	0.221855	
4389.984103	0.962127	0.459201	0.171587	0.221826	
4705.068462	0.962147	0.459197	0.171562	0.221790	
5042.767517	0.962166	0.459194	0.171540	0.221761	
5404.704403	0.962183	0.459192	0.171520	0.221738	
5792.618751	0.962199	0.459189	0.171499	0.221704	
6208.375056	0.962214	0.459186	0.171482	0.221690	
6653.971631	0.962228	0.459184	0.171464	0.221662	
7131.550215	0.962241	0.459182	0.171449	0.221643	
7643.406267	0.962253	0.459180	0.171434	0.221626	
8192.000000	0.962265	0.459178	0.171419	0.221603	
8779.968205	0.962275	0.459176	0.171406	0.221584	
9410.136924	0.962285	0.459175	0.171396	0.221576	
10085.535034	0.962295	0.459173	0.171383	0.221556	
10809.408805	0.962303	0.459172	0.171372	0.221539	
11585.237503	0.962311	0.459170	0.171364	0.221527	
12416.750113	0.962319	0.459169	0.171356	0.221522	
13307.943262	0.962326	0.459168	0.171346	0.221506	
14263.100429	0.962332	0.459167	0.171339	0.221499	
15286.812533	0.962339	0.459166	0.171331	0.221486	
16384.000000	0.962344	0.459165	0.171323	0.221475	
17559.936410	0.962350	0.459164	0.171317	0.221467	
18820.273848	0.962355	0.459163	0.171313	0.221469	
20171.070068	0.962359	0.459163	0.171307	0.221456	
21618.817610	0.962363	0.459162	0.171300	0.221445	
23170.475006	0.962367	0.459161	0.171295	0.221433	
24833.500226	0.962371	0.459161	0.171291	0.221436	
26615.886524	0.962375	0.459160	0.171288	0.221434	
28526.200858	0.962378	0.459159	0.171285	0.221434	
30573.625067	0.962381	0.459159	0.171280	0.221420	
32768.000000	0.962384	0.459158	0.171275	0.221412	
35119.872820	0.962387	0.459158	0.171274	0.221413	
37640.547697	0.962389	0.459158	0.171269	0.221402	
40342.140136	0.962391	0.459157	0.171267	0.221401	
43237.635220	0.962394	0.459157	0.171266	0.221406	
46340.950012	0.962396	0.459157	0.171262	0.221397	
49667.000451	0.962397	0.459156	0.171259	0.221389	
53231.773048	0.962399	0.459156	0.171259	0.221395	
57052.401716	0.962401	0.459156	0.171256	0.221386	
61147.250133	0.962402	0.459155	0.171254	0.221387	
65536.000000	0.962404	0.459155	0.171251	0.221378	
70239.745641	0.962405	0.459155	0.171250	0.221377	
75281.095393	0.962406	0.459155	0.171250	0.221385	
80684.280273	0.962408	0.459155	0.171248	0.221380	
86475.270440	0.962409	0.459154	0.171246	0.221374	
92681.900024	0.962410	0.459154	0.171245	0.221374	
99334.000903	0.962411	0.459154	0.171244	0.221372	
106463.546095	0.962411	0.459154	0.171243	0.221369	
114104.803432	0.962412	0.459154	0.171240	0.221359	
122294.500267	0.962413	0.459154	0.171240	0.221363	
131072.000000	0.962414	0.459154	0.171241	0.221368	
140479.491282	0.962414	0.459153	0.171239	0.221365	
150562.190786	0.962415	0.459153	0.171238	0.221361	
161368.560546	0.962416	0.459153	0.171237	0.221359	
172950.540881	0.962416	0.459153	0.171237	0.221363	
185363.800047	0.962417	0.459153	0.171236	0.221359	
198668.001806	0.962417	0.459153	0.171237	0.221365	
212927.092190	0.962418	0.459153	0.171235	0.221359	
228209.606865	0.962418	0.459153	0.171235	0.221361	
244589.000533	0.962418	0.459153	0.171236	0.221364	
262144.000000	0.962419	0.459153	0.171234	0.221356	
280958.982563	0.962419	0.459153	0.171234	0.221357	
301124.381572	0.962419	0.459153	0.171234	0.221363	
322737.121092	0.962420	0.459153	0.171232	0.221354	
345901.081762	0.962420	0.459153	0.171232	0.221355	
370727.600095	0.962420	0.459152	0.171232	0.221356	
397336.003611	0.962420	0.459152	0.171232	0.221356	
425854.184381	0.962421	0.459152	0.171231	0.221354	
456419.213729	0.962421	0.459152	0.171232	0.221355	
489178.001067	0.962421	0.459152	0.171230	0.221349	
524288.000000	0.962421	0.459152	0.171232	0.221359	
561917.965126	0.962421	0.459152	0.171232	0.221358	
602248.763145	0.962421	0.459152	0.171231	0.221356	
645474.242184	0.962422	0.459152	0.171232	0.221361	
691802.163523	0.962422	0.459152	0.171232	0.221358	
741455.200189	0.962422	0.459152	0.171230	0.221351	
794672.007223	0.962422	0.459152	0.171230	0.221351	
851708.368762	0.962422	0.459152	0.171230	0.221354	
912838.427459	0.962422	0.459152	0.171230	0.221352	
978356.002134	0.962422	0.459152	0.171231	0.221356	
